Observed,Expected
855,#N/A
847,#N/A
1000,900.67
635,827.33
346,660.33
2146,1042.33
1328,1273.33
1322,1598.67
3124,1924.67
1012,1819.33
1280,1805.33
2435,1575.67
1016,1577
3465,2305.33
1107,1862.67
1172,1914.67
3432,1903.67
836,1813.33
142,1470
345,441
2603,1030
739,1229
716,1352.67
880,778.33
1008,868
112,666.67
361,493.67
